#Wave		#Intensity
2102.180664	11303.893555
2101.273438	10966.503906
2100.365234	11182.953125
2099.457031	11215.849609
2098.548828	11127.342773
2097.640625	11375.996094
2096.732422	11470.853516
2095.823242	11614.199219
2094.914063	11501.422852
2094.004883	11771.367188
2093.095703	11580.464844
2092.186523	11653.635742
2091.277344	11667.523438
2090.367188	12018.006836
2089.457031	11862.203125
2088.546875	12002.553711
2087.636719	12102.479492
2086.725586	11989.799805
2085.815430	12234.958008
2084.904297	12211.054688
2083.993164	12442.626953
2083.082031	12464.397461
2082.170898	12459.277344
2081.258789	12604.662109
2080.347656	12443.667969
2079.435547	12763.621094
2078.523438	12704.723633
2077.610352	13115.805664
2076.698242	12678.285156
2075.786133	12949.621094
2074.873047	13019.558594
2073.959961	13237.052734
2073.046875	13231.785156
2072.132813	13357.953125
2071.219727	13446.525391
2070.305664	13459.987305
2069.391602	13454.677734
2068.477539	13725.433594
2067.563477	13800.463867
2066.649414	13824.559570
2065.734375	14014.721680
2064.819336	14194.096680
2063.904297	14081.541992
2062.989258	13971.707031
2062.074219	14207.190430
2061.158203	14415.821289
2060.243164	14808.980469
2059.327148	14535.911133
2058.411133	14463.534180
2057.495117	14856.451172
2056.578125	15088.807617
2055.662109	15256.923828
2054.745117	15237.906250
2053.828125	15291.036133
2052.911133	15175.849609
2051.993164	15570.833008
2051.076172	15388.877930
2050.158203	15826.379883
2049.240234	15551.020508
2048.322266	15820.188477
2047.404297	15875.793945
2046.485352	16238.159180
2045.567383	16138.964844
2044.648438	16330.470703
2043.729492	16436.585938
2042.810547	16590.638672
2041.890625	16781.941406
2040.971680	16839.941406
2040.051758	16692.787109
2039.131836	16987.832031
2038.211914	17051.082031
2037.291992	17114.304688
2036.371094	17406.429688
2035.451172	17642.548828
2034.530273	17937.113281
2033.609375	17922.958984
2032.688477	18092.339844
2031.766602	18197.828125
2030.845703	18337.839844
2029.923828	18525.644531
2029.001953	18777.160156
2028.080078	18837.255859
2027.157227	19255.984375
2026.235352	19034.402344
2025.312500	19094.408203
2024.389648	19263.251953
2023.466797	19315.224609
2022.543945	19778.564453
2021.621094	19976.361328
2020.697266	20025.507813
2019.773438	20459.253906
2018.849609	20195.341797
2017.925781	20551.990234
2017.001953	20781.248047
2016.077148	20962.707031
2015.152344	20656.500000
2014.228516	21513.517578
2013.302734	21596.712891
2012.377930	22048.001953
2011.453125	22006.605469
2010.527344	22055.236328
2009.601563	22119.726563
2008.675781	22546.738281
2007.750000	22997.392578
2006.824219	23199.210938
2005.897461	22961.917969
2004.970703	23269.433594
2004.043945	23492.226563
2003.117188	23910.529297
2002.190430	23889.978516
2001.262695	24035.892578
2000.335938	24401.003906
1999.408203	24882.183594
1998.480469	24924.828125
1997.551758	24933.132813
1996.624023	25057.574219
1995.695313	25435.316406
1994.766602	25599.187500
1993.837891	25831.582031
1992.909180	26156.195313
1991.980469	26158.966797
1991.050781	26768.125000
1990.121094	26955.289063
1989.191406	27021.148438
1988.261719	27250.345703
1987.332031	27400.417969
1986.401367	27632.082031
1985.471680	28079.589844
1984.541016	28616.435547
1983.610352	28258.076172
1982.679688	28323.578125
1981.748047	28944.257813
1980.817383	29769.892578
1979.885742	29435.253906
1978.954102	29629.324219
1978.021484	30146.712891
1977.089844	29725.447266
1976.158203	30129.595703
1975.225586	30688.619141
1974.292969	31231.656250
1973.360352	31283.296875
1972.426758	31836.505859
1971.494141	31656.949219
1970.560547	31892.226563
1969.626953	32298.007813
1968.693359	32456.966797
1967.759766	32526.660156
1966.825195	33199.617188
1965.891602	33287.492188
1964.957031	33813.203125
1964.022461	33955.968750
1963.087891	34190.410156
1962.152344	34351.382813
1961.217773	34651.148438
1960.282227	35123.675781
1959.346680	35245.082031
1958.411133	35455.464844
1957.475586	35621.257813
1956.539063	36336.628906
1955.602539	36120.121094
1954.666016	36487.136719
1953.729492	36767.683594
1952.792969	37189.343750
1951.856445	37202.929688
1950.918945	37485.781250
1949.981445	37927.953125
1949.043945	38268.035156
1948.106445	38242.199219
1947.167969	38203.312500
1946.230469	38660.656250
1945.291992	38775.757813
1944.353516	39718.386719
1943.415039	39321.644531
1942.475586	40070.675781
1941.537109	39898.398438
1940.597656	40271.378906
1939.658203	39994.804688
1938.718750	40936.062500
1937.779297	40748.101563
1936.838867	40953.792969
1935.899414	41117.707031
1934.958984	41503.023438
1934.018555	42172.128906
1933.077148	41856.476563
1932.136719	42452.332031
1931.195313	42641.812500
1930.253906	42922.320313
1929.312500	42788.925781
1928.371094	42973.019531
1927.429688	43170.042969
1926.487305	43673.886719
1925.544922	43550.847656
1924.602539	43979.019531
1923.660156	44126.289063
1922.717773	44481.406250
1921.774414	44560.960938
1920.832031	44627.492188
1919.888672	44670.621094
1918.944336	45321.371094
1918.000977	45642.140625
1917.057617	45882.308594
1916.113281	45844.691406
1915.168945	45846.007813
1914.224609	46189.757813
1913.280273	46058.722656
1912.334961	46537.132813
1911.390625	46942.757813
1910.445313	47275.636719
1909.500000	46722.046875
1908.553711	47674.113281
1907.608398	47462.613281
1906.662109	47515.390625
1905.716797	47757.179688
1904.770508	48353.574219
1903.823242	48514.855469
1902.876953	48111.871094
1901.930664	48604.332031
1900.983398	49453.609375
1900.036133	48851.507813
1899.088867	48867.699219
1898.140625	49000.230469
1897.193359	49298.140625
1896.245117	49321.980469
1895.296875	48826.433594
1894.348633	49811.390625
1893.400391	49168.710938
1892.451172	49732.269531
1891.502930	49748.242188
1890.553711	50396.644531
1889.604492	50433.117188
1888.654297	51014.035156
1887.705078	50923.953125
1886.754883	51143.425781
1885.804688	50965.667969
1884.854492	51022.609375
1883.904297	50930.007813
1882.954102	51162.179688
1882.002930	51018.046875
1881.051758	51180.546875
1880.100586	51590.253906
1879.149414	51440.964844
1878.198242	51917.394531
1877.246094	51685.714844
1876.293945	51760.402344
1875.341797	51701.246094
1874.389648	51932.828125
1873.437500	51943.109375
1872.484375	52472.863281
1871.532227	52606.441406
1870.579102	52400.632813
1869.625977	52508.464844
1868.671875	52657.367188
1867.718750	52343.761719
1866.764648	52423.277344
1865.810547	52723.617188
1864.856445	53290.867188
1863.902344	52525.562500
1862.947266	53061.820313
1861.993164	52686.906250
1861.038086	53281.921875
1860.083008	53061.007813
1859.126953	53263.332031
1858.171875	53388.652344
1857.215820	53242.183594
1856.260742	53400.769531
1855.303711	52636.781250
1854.347656	53400.058594
1853.391602	53663.531250
1852.434570	53535.066406
1851.477539	53206.929688
1850.520508	53457.476563
1849.563477	53518.519531
1848.606445	53198.253906
1847.648438	53525.394531
1846.690430	53921.472656
1845.732422	53601.304688
1844.774414	53506.273438
1843.816406	53674.585938
1842.857422	53502.894531
1841.899414	53931.785156
1840.940430	53509.726563
1839.980469	54035.507813
1839.021484	53782.144531
1838.062500	54103.386719
1837.102539	53607.582031
1836.142578	53573.949219
1835.182617	53713.851563
1834.221680	53866.453125
1833.261719	53973.074219
1832.300781	53936.832031
1831.339844	53829.207031
1830.378906	54239.132813
1829.417969	53998.949219
1828.456055	53682.406250
1827.495117	54015.671875
1826.533203	53778.210938
1825.571289	54414.386719
1824.608398	53940.136719
1823.646484	54054.136719
1822.683594	53944.113281
1821.720703	54116.593750
1820.757813	53940.441406
1819.794922	53955.136719
1818.832031	54221.601563
1817.868164	54238.769531
1816.904297	53805.960938
1815.940430	54420.500000
1814.976563	54104.714844
1814.011719	54076.148438
1813.047852	54235.566406
1812.083008	54273.015625
1811.118164	54660.847656
1810.153320	54162.531250
1809.187500	54159.351563
1808.221680	54536.816406
1807.256836	54467.589844
1806.291016	54289.312500
1805.324219	53925.964844
1804.358398	54267.667969
1803.391602	54528.105469
1802.425781	54575.527344
1801.458984	54164.250000
1800.491211	54300.398438
1799.524414	54195.843750
1798.556641	54273.671875
1797.589844	54090.664063
1796.622070	54624.164063
1795.653320	54408.246094
1794.685547	54460.652344
1793.716797	54581.351563
1792.749023	54459.156250
1791.780273	54926.281250
1790.810547	54869.804688
1789.841797	54702.109375
1788.872070	54903.503906
1787.903320	55046.695313
1786.933594	55012.964844
1785.962891	55201.539063
1784.993164	54927.859375
1784.023438	55121.417969
1783.052734	54986.707031
1782.082031	55334.132813
1781.111328	55519.914063
1780.139648	55221.203125
1779.168945	55179.898438
1778.197266	55781.722656
1777.225586	55062.035156
1776.253906	55482.121094
1775.281250	55450.871094
1774.309570	55359.148438
1773.336914	55310.292969
1772.364258	55593.957031
1771.391602	55517.363281
1770.418945	55969.570313
1769.445313	55958.382813
1768.471680	56422.898438
1767.498047	56434.265625
1766.524414	56138.675781
1765.550781	56489.675781
1764.576172	56438.136719
1763.602539	56220.664063
1762.627930	56946.003906
1761.653320	57060.285156
1760.677734	56754.855469
1759.703125	57266.085938
1758.727539	57287.285156
1757.751953	57501.847656
1756.776367	57098.636719
1755.799805	57398.500000
1754.824219	57688.203125
1753.847656	57879.917969
1752.871094	58114.207031
1751.894531	57422.789063
1750.917969	57847.671875
1749.940430	57906.296875
1748.962891	58145.390625
1747.985352	58913.242188
1747.007813	59009.195313
1746.030273	58358.500000
1745.051758	58457.023438
1744.074219	58800.937500
1743.095703	59402.617188
1742.116211	59628.535156
1741.137695	59751.746094
1740.159180	59354.402344
1739.179688	59902.933594
1738.200195	60116.054688
1737.220703	60366.597656
1736.240234	60084.457031
1735.260742	60087.410156
1734.280273	60457.769531
1733.299805	60493.128906
1732.319336	60568.441406
1731.337891	61228.230469
1730.357422	61046.128906
1729.375977	61228.640625
1728.394531	61470.992188
1727.413086	61548.515625
1726.431641	61795.687500
1725.449219	61688.484375
1724.466797	62017.839844
1723.484375	62194.929688
1722.501953	62366.960938
1721.519531	62354.445313
1720.536133	62474.027344
1719.552734	62546.210938
1718.569336	62852.554688
1717.585938	62902.210938
1716.602539	63659.109375
1715.618164	63646.328125
1714.633789	63735.613281
1713.649414	63842.281250
1712.665039	64339.578125
1711.680664	64351.535156
1710.695313	64676.894531
1709.709961	64987.199219
1708.724609	64939.335938
1707.739258	65090.359375
1706.753906	65305.937500
1705.767578	65680.460938
1704.781250	65597.695313
1703.794922	66083.773438
1702.808594	66865.179688
1701.821289	66869.117188
1700.834961	66550.343750
1699.847656	66978.742188
1698.860352	67362.304688
1697.873047	67073.382813
1696.884766	67082.218750
1695.897461	67123.289063
1694.909180	68037.085938
1693.920898	68231.625000
1692.931641	68480.617188
1691.943359	68154.625000
1690.954102	68559.593750
1689.964844	69402.812500
1688.975586	68690.507813
1687.986328	69624.953125
1686.997070	69838.687500
1686.006836	69198.476563
1685.016602	69538.390625
1684.026367	69967.226563
1683.036133	70514.609375
1682.044922	70366.882813
1681.053711	70820.000000
1680.062500	70800.796875
1679.071289	71317.898438
1678.080078	71212.117188
1677.087891	71447.289063
1676.096680	71472.421875
1675.104492	71818.562500
1674.112305	71979.390625
1673.119141	72051.289063
1672.126953	72579.718750
1671.133789	72831.585938
1670.140625	73001.929688
1669.147461	73667.960938
1668.153320	73194.453125
1667.160156	72984.929688
1666.166016	73761.468750
1665.171875	73512.484375
1664.177734	74544.851563
1663.182617	75074.250000
1662.188477	74214.312500
1661.193359	74443.132813
1660.198242	75270.125000
1659.203125	74895.570313
1658.207031	75488.328125
1657.211914	75576.445313
1656.215820	75339.804688
1655.219727	75563.179688
1654.223633	76211.867188
1653.226563	76599.687500
1652.229492	76687.468750
1651.233398	76743.257813
1650.236328	76457.500000
1649.238281	76734.398438
1648.241211	77163.453125
1647.243164	76794.281250
1646.245117	76911.351563
1645.247070	77870.281250
1644.249023	77704.867188
1643.250000	78376.171875
1642.251953	78544.320313
1641.252930	78709.953125
1640.252930	78282.109375
1639.253906	78589.906250
1638.254883	78966.203125
1637.254883	79121.796875
1636.254883	79228.320313
1635.254883	79327.437500
1634.253906	80163.695313
1633.253906	80154.843750
1632.252930	79915.875000
1631.251953	80115.109375
1630.250977	80610.367188
1629.249023	80322.500000
1628.248047	80722.109375
1627.246094	81109.320313
1626.244141	80643.015625
1625.242188	80570.484375
1624.239258	81490.304688
1623.236328	81417.617188
1622.234375	81767.625000
1621.230469	82046.656250
1620.227539	82049.593750
1619.224609	82067.187500
1618.220703	82070.109375
1617.216797	82107.203125
1616.212891	82078.390625
1615.208984	82962.031250
1614.204102	82430.570313
1613.199219	83204.039063
1612.194336	83652.898438
1611.189453	83189.859375
1610.184570	83616.601563
1609.178711	83982.242188
1608.173828	84121.156250
1607.167969	83872.734375
1606.161133	84079.789063
1605.155273	84169.898438
1604.148438	83924.031250
1603.142578	84685.843750
1602.135742	84534.859375
1601.127930	84566.390625
1600.121094	84758.437500
1599.113281	84505.382813
1598.105469	85312.476563
1597.097656	85555.289063
1596.089844	84862.320313
1595.081055	85314.085938
1594.073242	85262.781250
1593.064453	86270.476563
1592.055664	86039.296875
1591.045898	86017.000000
1590.037109	85999.562500
1589.027344	86336.453125
1588.017578	86445.117188
1587.007813	86495.515625
1585.998047	86783.578125
1584.987305	86722.328125
1583.976563	87475.703125
1582.965820	86912.578125
1581.955078	86822.242188
1580.943359	86923.351563
1579.932617	87198.835938
1578.920898	87585.609375
1577.909180	87548.468750
1576.897461	87501.648438
1575.884766	88135.000000
1574.872070	88642.250000
1573.860352	87956.476563
1572.846680	88521.601563
1571.833984	88389.960938
1570.821289	88686.359375
1569.807617	89084.171875
1568.793945	89694.515625
1567.780273	88886.085938
1566.765625	89039.570313
1565.751953	89021.492188
1564.737305	89008.234375
1563.722656	89620.367188
1562.708008	89877.367188
1561.692383	89634.640625
1560.677734	90371.742188
1559.662109	90157.953125
1558.646484	90421.851563
1557.629883	90212.953125
1556.614258	90286.242188
1555.597656	90231.726563
1554.581055	91042.492188
1553.564453	90838.437500
1552.547852	91263.257813
1551.530273	91398.859375
1550.513672	91137.046875
1549.496094	91542.273438
1548.477539	91740.304688
1547.459961	92058.593750
1546.441406	91893.085938
1545.423828	92367.578125
1544.405273	91877.351563
1543.385742	92322.781250
1542.367188	92575.687500
1541.347656	92780.406250
1540.328125	93081.164063
1539.308594	92886.812500
1538.289063	93670.296875
1537.268555	93170.851563
1536.249023	93629.757813
1535.228516	94160.500000
1534.208008	94856.648438
1533.186523	94095.765625
1532.166016	94479.703125
1531.144531	94165.398438
1530.123047	94467.609375
1529.101563	94553.875000
1528.079102	95285.023438
1527.056641	94946.812500
1526.035156	94762.117188
1525.012695	95622.140625
1523.989258	96251.843750
1522.966797	95810.703125
1521.943359	95695.390625
1520.919922	95450.851563
1519.896484	96276.320313
1518.873047	96065.250000
1517.848633	96112.656250
1516.824219	96954.218750
1515.799805	97262.101563
1514.775391	96957.726563
1513.750977	97387.390625
1512.725586	97616.109375
1511.700195	97237.750000
1510.674805	98054.125000
1509.649414	98175.054688
1508.623047	97935.312500
1507.597656	98667.460938
1506.571289	98833.539063
1505.543945	98861.101563
1504.517578	98914.906250
1503.491211	99748.820313
1502.463867	99058.195313
1501.436523	99252.609375
1500.409180	100255.218750
1499.380859	99691.234375
1498.352539	100176.148438
1497.325195	100653.710938
1496.296875	100928.570313
1495.267578	101312.875000
1494.239258	101782.750000
1493.209961	102004.812500
1492.180664	101248.429688
1491.151367	101775.132813
1490.122070	102527.656250
1489.091797	102585.210938
1488.061523	101955.367188
1487.031250	102754.937500
1486.000977	103349.710938
1484.969727	103934.726563
1483.939453	103844.562500
1482.908203	103809.078125
1481.876953	104697.695313
1480.845703	105683.320313
1479.813477	105348.265625
1478.781250	106285.859375
1477.749023	106413.664063
1476.716797	106368.164063
1475.684570	106493.515625
1474.651367	107290.125000
1473.618164	107797.062500
1472.584961	107936.250000
1471.551758	108210.507813
1470.518555	108617.375000
1469.484375	109220.757813
1468.450195	109793.085938
1467.416016	110341.492188
1466.381836	111003.335938
1465.346680	110528.367188
1464.311523	110912.921875
1463.276367	111945.812500
1462.241211	111615.273438
1461.206055	112697.273438
1460.169922	113275.000000
1459.133789	113556.875000
1458.097656	114313.867188
1457.061523	114607.218750
1456.024414	115276.226563
1454.987305	116193.062500
1453.951172	116426.773438
1452.913086	116414.726563
1451.875977	117174.890625
1450.837891	117948.898438
1449.800781	118064.000000
1448.762695	118212.085938
1447.723633	118912.242188
1446.685547	119378.554688
1445.646484	120559.320313
1444.607422	121006.226563
1443.568359	120903.617188
1442.529297	121965.468750
1441.489258	122383.507813
1440.449219	122853.210938
1439.409180	123174.296875
1438.369141	124734.085938
1437.329102	124221.070313
1436.288086	124332.140625
1435.247070	125297.562500
1434.206055	126130.796875
1433.165039	125664.945313
1432.123047	127172.867188
1431.082031	127755.890625
1430.040039	128305.750000
1428.997070	128735.476563
1427.955078	129254.343750
1426.912109	129657.835938
1425.870117	130549.835938
1424.827148	130882.421875
1423.783203	130721.687500
1422.740234	131756.125000
1421.696289	131902.781250
1420.652344	132523.453125
1419.608398	132911.578125
1418.564453	133538.812500
1417.519531	134203.312500
1416.474609	134869.890625
1415.429688	135566.656250
1414.384766	135712.265625
1413.338867	135960.921875
1412.293945	136261.015625
1411.248047	136947.531250
1410.202148	137259.000000
1409.155273	137357.234375
1408.109375	138736.062500
1407.062500	138899.484375
1406.015625	139448.968750
1404.968750	138971.046875
1403.920898	140390.500000
1402.874023	140586.156250
1401.826172	141141.812500
1400.777344	141285.781250
1399.729492	141511.500000
1398.681641	141409.937500
1397.632813	142294.375000
1396.583984	142508.031250
1395.535156	143022.875000
1394.485352	142762.281250
1393.435547	143421.562500
1392.386719	143912.531250
1391.335938	143857.234375
1390.286133	144102.921875
1389.236328	144192.218750
1388.185547	143873.343750
1387.134766	144013.921875
1386.083984	144103.156250
1385.032227	143758.843750
