#Wave		#Intensity
2102.180664	9797.787109
2101.273438	9854.468750
2100.365234	9828.261719
2099.457031	9969.343750
2098.548828	10059.118164
2097.640625	10022.096680
2096.732422	9920.373047
2095.823242	10271.611328
2094.914063	10407.076172
2094.004883	10426.606445
2093.095703	10260.216797
2092.186523	10317.481445
2091.277344	10431.283203
2090.367188	10571.968750
2089.457031	10631.829102
2088.546875	10489.785156
2087.636719	10622.300781
2086.725586	10668.662109
2085.815430	10836.062500
2084.904297	10895.810547
2083.993164	10769.985352
2083.082031	11044.811523
2082.170898	11053.408203
2081.258789	11110.377930
2080.347656	11261.371094
2079.435547	11261.860352
2078.523438	11474.541016
2077.610352	11480.358398
2076.698242	11472.748047
2075.786133	11599.360352
2074.873047	11615.882813
2073.959961	11868.535156
2073.046875	11903.777344
2072.132813	11952.417969
2071.219727	12084.173828
2070.305664	12017.462891
2069.391602	12133.069336
2068.477539	12117.297852
2067.563477	12214.080078
2066.649414	12326.899414
2065.734375	12482.531250
2064.819336	12397.070313
2063.904297	12713.284180
2062.989258	12785.757813
2062.074219	13005.414063
2061.158203	12914.563477
2060.243164	12839.800781
2059.327148	12765.066406
2058.411133	13211.881836
2057.495117	13409.845703
2056.578125	13530.201172
2055.662109	13492.808594
2054.745117	13562.324219
2053.828125	13709.296875
2052.911133	13719.972656
2051.993164	13842.817383
2051.076172	13933.570313
2050.158203	14034.965820
2049.240234	14320.499023
2048.322266	14325.703125
2047.404297	14589.720703
2046.485352	14330.769531
2045.567383	14648.024414
2044.648438	14730.490234
2043.729492	14978.222656
2042.810547	14812.689453
2041.890625	15044.316406
2040.971680	15201.245117
2040.051758	15003.794922
2039.131836	15570.848633
2038.211914	15535.843750
2037.291992	15615.338867
2036.371094	15886.460938
2035.451172	15827.459961
2034.530273	16002.640625
2033.609375	15850.525391
2032.688477	16344.814453
2031.766602	16567.656250
2030.845703	16543.140625
2029.923828	16664.839844
2029.001953	16754.595703
2028.080078	17272.134766
2027.157227	16971.195313
2026.235352	17039.587891
2025.312500	17485.060547
2024.389648	17757.771484
2023.466797	17547.228516
2022.543945	17870.246094
2021.621094	18325.816406
2020.697266	18367.326172
2019.773438	18310.673828
2018.849609	18635.937500
2017.925781	18801.982422
2017.001953	18774.435547
2016.077148	18924.482422
2015.152344	19461.363281
2014.228516	19404.556641
2013.302734	19424.591797
2012.377930	19513.474609
2011.453125	20023.337891
2010.527344	20204.724609
2009.601563	20290.751953
2008.675781	20289.417969
2007.750000	20788.140625
2006.824219	20826.384766
2005.897461	20700.636719
2004.970703	21154.029297
2004.043945	21353.445313
2003.117188	21669.082031
2002.190430	21886.814453
2001.262695	22035.763672
2000.335938	22182.011719
1999.408203	22410.076172
1998.480469	22704.064453
1997.551758	22762.968750
1996.624023	22887.835938
1995.695313	23426.988281
1994.766602	23374.892578
1993.837891	24111.585938
1992.909180	24088.386719
1991.980469	23949.166016
1991.050781	24361.023438
1990.121094	24859.703125
1989.191406	24773.119141
1988.261719	24976.408203
1987.332031	25113.757813
1986.401367	25659.302734
1985.471680	25469.921875
1984.541016	25901.968750
1983.610352	26378.591797
1982.679688	26478.677734
1981.748047	26528.728516
1980.817383	26976.003906
1979.885742	26818.144531
1978.954102	27336.187500
1978.021484	27677.869141
1977.089844	27769.687500
1976.158203	28153.195313
1975.225586	28405.169922
1974.292969	28541.447266
1973.360352	28795.867188
1972.426758	28945.142578
1971.494141	29186.253906
1970.560547	29264.511719
1969.626953	29833.533203
1968.693359	30097.937500
1967.759766	30451.437500
1966.825195	30655.285156
1965.891602	30966.572266
1964.957031	30902.791016
1964.022461	31206.041016
1963.087891	31199.894531
1962.152344	31990.365234
1961.217773	32335.134766
1960.282227	32514.742188
1959.346680	32435.007813
1958.411133	32638.089844
1957.475586	33076.695313
1956.539063	32947.164063
1955.602539	33594.878906
1954.666016	33962.390625
1953.729492	34266.976563
1952.792969	34192.226563
1951.856445	34541.097656
1950.918945	34513.375000
1949.981445	34605.890625
1949.043945	34936.175781
1948.106445	35368.222656
1947.167969	35457.898438
1946.230469	35618.054688
1945.291992	36151.539063
1944.353516	36656.097656
1943.415039	36607.105469
1942.475586	36967.839844
1941.537109	37187.539063
1940.597656	37412.367188
1939.658203	37446.714844
1938.718750	37869.574219
1937.779297	37802.140625
1936.838867	38130.921875
1935.899414	38436.121094
1934.958984	38501.488281
1934.018555	38486.074219
1933.077148	39056.667969
1932.136719	39358.828125
1931.195313	39572.351563
1930.253906	39574.949219
1929.312500	39856.003906
1928.371094	40103.121094
1927.429688	39954.726563
1926.487305	40490.417969
1925.544922	40989.492188
1924.602539	40825.402344
1923.660156	40986.296875
1922.717773	41193.898438
1921.774414	41869.117188
1920.832031	41956.960938
1919.888672	41712.320313
1918.944336	42342.878906
1918.000977	42235.855469
1917.057617	42100.316406
1916.113281	42354.113281
1915.168945	42784.246094
1914.224609	42835.457031
1913.280273	43273.101563
1912.334961	43407.167969
1911.390625	43717.484375
1910.445313	43371.859375
1909.500000	44151.140625
1908.553711	44038.761719
1907.608398	44159.582031
1906.662109	44285.535156
1905.716797	44243.109375
1904.770508	45161.246094
1903.823242	44399.039063
1902.876953	44972.566406
1901.930664	45020.589844
1900.983398	45451.476563
1900.036133	44982.082031
1899.088867	45870.523438
1898.140625	45853.687500
1897.193359	46294.394531
1896.245117	45897.562500
1895.296875	46046.097656
1894.348633	46163.566406
1893.400391	46309.402344
1892.451172	46654.023438
1891.502930	46536.343750
1890.553711	46663.941406
1889.604492	47103.773438
1888.654297	47140.890625
1887.705078	47188.308594
1886.754883	46918.445313
1885.804688	47399.128906
1884.854492	47451.617188
1883.904297	47609.773438
1882.954102	47783.328125
1882.002930	47459.488281
1881.051758	47800.457031
1880.100586	48177.347656
1879.149414	47892.246094
1878.198242	48062.984375
1877.246094	48290.285156
1876.293945	48172.613281
1875.341797	48816.660156
1874.389648	48647.472656
1873.437500	48082.226563
1872.484375	48869.917969
1871.532227	48428.265625
1870.579102	48873.667969
1869.625977	48419.335938
1868.671875	48743.785156
1867.718750	48567.117188
1866.764648	49058.363281
1865.810547	48979.289063
1864.856445	48854.027344
1863.902344	49332.082031
1862.947266	49104.128906
1861.993164	49281.707031
1861.038086	49146.210938
1860.083008	49823.894531
1859.126953	49301.089844
1858.171875	49645.140625
1857.215820	49617.335938
1856.260742	49738.199219
1855.303711	49410.566406
1854.347656	49662.078125
1853.391602	49580.492188
1852.434570	49719.179688
1851.477539	49645.292969
1850.520508	49725.027344
1849.563477	49779.136719
1848.606445	49579.878906
1847.648438	49946.121094
1846.690430	49900.382813
1845.732422	49905.808594
1844.774414	49977.710938
1843.816406	50116.050781
1842.857422	49776.375000
1841.899414	50264.785156
1840.940430	49943.093750
1839.980469	50206.480469
1839.021484	50492.746094
1838.062500	50076.718750
1837.102539	49722.125000
1836.142578	49770.937500
1835.182617	49822.285156
1834.221680	50373.667969
1833.261719	49937.656250
1832.300781	50685.167969
1831.339844	50269.664063
1830.378906	50636.957031
1829.417969	50124.765625
1828.456055	50586.226563
1827.495117	50199.085938
1826.533203	50043.898438
1825.571289	50301.347656
1824.608398	50352.445313
1823.646484	50260.957031
1822.683594	50182.226563
1821.720703	50103.527344
1820.757813	50220.761719
1819.794922	50149.710938
1818.832031	49984.585938
1817.868164	50422.148438
1816.904297	50262.113281
1815.940430	50552.023438
1814.976563	50620.726563
1814.011719	49960.222656
1813.047852	50905.378906
1812.083008	50839.363281
1811.118164	50308.699219
1810.153320	49526.917969
1809.187500	49943.457031
1808.221680	50578.070313
1807.256836	50547.687500
1806.291016	50476.734375
1805.324219	50131.898438
1804.358398	50301.933594
1803.391602	50694.988281
1802.425781	50408.605469
1801.458984	50010.832031
1800.491211	50697.601563
1799.524414	50938.265625
1798.556641	50360.800781
1797.589844	50102.609375
1796.622070	50578.679688
1795.653320	50310.417969
1794.685547	50712.863281
1793.716797	50829.246094
1792.749023	50156.355469
1791.780273	50500.414063
1790.810547	50429.648438
1789.841797	51114.796875
1788.872070	51061.625000
1787.903320	51021.105469
1786.933594	50682.468750
1785.962891	50879.484375
1784.993164	50659.703125
1784.023438	51235.394531
1783.052734	50922.218750
1782.082031	51172.023438
1781.111328	51580.703125
1780.139648	50954.785156
1779.168945	51920.816406
1778.197266	51300.117188
1777.225586	51365.511719
1776.253906	51761.128906
1775.281250	51624.761719
1774.309570	51453.164063
1773.336914	51604.125000
1772.364258	51800.367188
1771.391602	51706.902344
1770.418945	51920.667969
1769.445313	51786.929688
1768.471680	52209.492188
1767.498047	51572.453125
1766.524414	52196.164063
1765.550781	52563.042969
1764.576172	52069.660156
1763.602539	52366.007813
1762.627930	53016.699219
1761.653320	52639.132813
1760.677734	52538.132813
1759.703125	52723.593750
1758.727539	53278.230469
1757.751953	53008.890625
1756.776367	53108.761719
1755.799805	53580.136719
1754.824219	53323.437500
1753.847656	53478.386719
1752.871094	52943.316406
1751.894531	53667.683594
1750.917969	54043.156250
1749.940430	54022.304688
1748.962891	53625.421875
1747.985352	54795.203125
1747.007813	54029.949219
1746.030273	54109.324219
1745.051758	54719.703125
1744.074219	54731.281250
1743.095703	54540.035156
1742.116211	54674.304688
1741.137695	54728.425781
1740.159180	55225.445313
1739.179688	55071.769531
1738.200195	55513.484375
1737.220703	55734.941406
1736.240234	55801.281250
1735.260742	55847.593750
1734.280273	56631.203125
1733.299805	56112.574219
1732.319336	56820.859375
1731.337891	56424.789063
1730.357422	56498.386719
1729.375977	56704.285156
1728.394531	57499.242188
1727.413086	56551.753906
1726.431641	57800.578125
1725.449219	57539.492188
1724.466797	57435.656250
1723.484375	57805.695313
1722.501953	57831.500000
1721.519531	58036.773438
1720.536133	58052.542969
1719.552734	58292.570313
1718.569336	58497.621094
1717.585938	58607.929688
1716.602539	58967.230469
1715.618164	59144.625000
1714.633789	59105.367188
1713.649414	58640.519531
1712.665039	59335.445313
1711.680664	60002.718750
1710.695313	59935.945313
1709.709961	60182.542969
1708.724609	60182.886719
1707.739258	60769.894531
1706.753906	60113.972656
1705.767578	60765.355469
1704.781250	61115.867188
1703.794922	60991.808594
1702.808594	61391.796875
1701.821289	61322.351563
1700.834961	61736.996094
1699.847656	62047.230469
1698.860352	62071.976563
1697.873047	62357.207031
1696.884766	62203.285156
1695.897461	62327.171875
1694.909180	63346.066406
1693.920898	63152.367188
1692.931641	63251.195313
1691.943359	63131.921875
1690.954102	63793.078125
1689.964844	63329.449219
1688.975586	63707.980469
1687.986328	64274.523438
1686.997070	64479.425781
1686.006836	64382.304688
1685.016602	64968.156250
1684.026367	64581.519531
1683.036133	65194.292969
1682.044922	65398.789063
1681.053711	65462.265625
1680.062500	66020.101563
1679.071289	65779.437500
1678.080078	66077.531250
1677.087891	66056.812500
1676.096680	66819.070313
1675.104492	66454.953125
1674.112305	67056.335938
1673.119141	67190.929688
1672.126953	67125.570313
1671.133789	67107.109375
1670.140625	67357.554688
1669.147461	67390.843750
1668.153320	68119.515625
1667.160156	68256.179688
1666.166016	68735.421875
1665.171875	68448.007813
1664.177734	69161.078125
1663.182617	68794.867188
1662.188477	68968.179688
1661.193359	69092.171875
1660.198242	69730.664063
1659.203125	69618.148438
1658.207031	69444.140625
1657.211914	70092.007813
1656.215820	70198.414063
1655.219727	70216.226563
1654.223633	70511.898438
1653.226563	70999.203125
1652.229492	71046.335938
1651.233398	71346.562500
1650.236328	71037.320313
1649.238281	71575.703125
1648.241211	71413.898438
1647.243164	71428.945313
1646.245117	71569.195313
1645.247070	71748.656250
1644.249023	72085.101563
1643.250000	72077.906250
1642.251953	72492.640625
1641.252930	72997.945313
1640.252930	73042.054688
1639.253906	73343.554688
1638.254883	73277.265625
1637.254883	73230.609375
1636.254883	73034.507813
1635.254883	73389.640625
1634.253906	74217.304688
1633.253906	74728.757813
1632.252930	74583.906250
1631.251953	74311.835938
1630.250977	74641.859375
1629.249023	74842.070313
1628.248047	74601.906250
1627.246094	74804.484375
1626.244141	75388.421875
1625.242188	75348.726563
1624.239258	75137.960938
1623.236328	75562.625000
1622.234375	75847.851563
1621.230469	76120.750000
1620.227539	75809.851563
1619.224609	75999.617188
1618.220703	76330.890625
1617.216797	76273.960938
1616.212891	76507.429688
1615.208984	76870.101563
1614.204102	77064.320313
1613.199219	77277.960938
1612.194336	77467.132813
1611.189453	77388.070313
1610.184570	77474.773438
1609.178711	77254.398438
1608.173828	78069.523438
1607.167969	77914.875000
1606.161133	77699.414063
1605.155273	78087.851563
1604.148438	78364.148438
1603.142578	78214.421875
1602.135742	78590.335938
1601.127930	78890.679688
1600.121094	78315.273438
1599.113281	78666.609375
1598.105469	78361.343750
1597.097656	78841.351563
1596.089844	79299.296875
1595.081055	79740.031250
1594.073242	78732.703125
1593.064453	79804.867188
1592.055664	79863.968750
1591.045898	79784.656250
1590.037109	80105.890625
1589.027344	80048.390625
1588.017578	79889.000000
1587.007813	80462.296875
1585.998047	80552.695313
1584.987305	80679.429688
1583.976563	80992.789063
1582.965820	80552.171875
1581.955078	81127.148438
1580.943359	81040.429688
1579.932617	81142.687500
1578.920898	81092.312500
1577.909180	81148.500000
1576.897461	81800.226563
1575.884766	81202.710938
1574.872070	80905.507813
1573.860352	82338.367188
1572.846680	82454.703125
1571.833984	81801.890625
1570.821289	82121.390625
1569.807617	82099.882813
1568.793945	82670.554688
1567.780273	82767.343750
1566.765625	83083.953125
1565.751953	82509.078125
1564.737305	82922.203125
1563.722656	83096.109375
1562.708008	83697.242188
1561.692383	83489.562500
1560.677734	84232.734375
1559.662109	83559.382813
1558.646484	83935.578125
1557.629883	84154.859375
1556.614258	84029.257813
1555.597656	83797.625000
1554.581055	84243.343750
1553.564453	84505.742188
1552.547852	84611.429688
1551.530273	84406.351563
1550.513672	84704.664063
1549.496094	84841.531250
1548.477539	84759.281250
1547.459961	85736.031250
1546.441406	85230.125000
1545.423828	85787.765625
1544.405273	85686.125000
1543.385742	85697.554688
1542.367188	85862.843750
1541.347656	85979.984375
1540.328125	86046.601563
1539.308594	85935.382813
1538.289063	86789.945313
1537.268555	86476.843750
1536.249023	87573.484375
1535.228516	86578.492188
1534.208008	87177.765625
1533.186523	87272.812500
1532.166016	86763.156250
1531.144531	87968.945313
1530.123047	87593.664063
1529.101563	88626.125000
1528.079102	88322.773438
1527.056641	88302.382813
1526.035156	88111.843750
1525.012695	88733.625000
1523.989258	89034.148438
1522.966797	88635.195313
1521.943359	89072.093750
1520.919922	88895.937500
1519.896484	89595.882813
1518.873047	89122.937500
1517.848633	89442.125000
1516.824219	89610.468750
1515.799805	89463.054688
1514.775391	89946.945313
1513.750977	90480.843750
1512.725586	89678.421875
1511.700195	90556.257813
1510.674805	90102.953125
1509.649414	91142.765625
1508.623047	90706.234375
1507.597656	91296.593750
1506.571289	91714.828125
1505.543945	91560.070313
1504.517578	92068.750000
1503.491211	91978.382813
1502.463867	92455.750000
1501.436523	92417.796875
1500.409180	93066.539063
1499.380859	93223.945313
1498.352539	93433.710938
1497.325195	93257.367188
1496.296875	93609.968750
1495.267578	94424.507813
1494.239258	94021.820313
1493.209961	94293.085938
1492.180664	95292.640625
1491.151367	95182.734375
1490.122070	94989.593750
1489.091797	95308.000000
1488.061523	95355.117188
1487.031250	95594.835938
1486.000977	96279.039063
1484.969727	96247.476563
1483.939453	96463.078125
1482.908203	96718.984375
1481.876953	96953.390625
1480.845703	97600.968750
1479.813477	97827.968750
1478.781250	97891.054688
1477.749023	98355.257813
1476.716797	98776.546875
1475.684570	99567.781250
1474.651367	99443.046875
1473.618164	99818.773438
1472.584961	100832.187500
1471.551758	100401.429688
1470.518555	101054.023438
1469.484375	101542.843750
1468.450195	101180.890625
1467.416016	101906.343750
1466.381836	102875.421875
1465.346680	103493.671875
1464.311523	103690.273438
1463.276367	103709.281250
1462.241211	103529.507813
1461.206055	104882.867188
1460.169922	104882.679688
1459.133789	105868.640625
1458.097656	106260.734375
1457.061523	106066.398438
1456.024414	106257.382813
1454.987305	107513.968750
1453.951172	107413.984375
1452.913086	108110.015625
1451.875977	108841.179688
1450.837891	108698.468750
1449.800781	109674.695313
1448.762695	110308.312500
1447.723633	110620.757813
1446.685547	110907.125000
1445.646484	111719.328125
1444.607422	111741.226563
1443.568359	112050.742188
1442.529297	112937.625000
1441.489258	113944.320313
1440.449219	114217.835938
1439.409180	114462.960938
1438.369141	114710.328125
1437.329102	115426.179688
1436.288086	116476.039063
1435.247070	116652.210938
1434.206055	116760.062500
1433.165039	118001.906250
1432.123047	118177.632813
1431.082031	118506.156250
1430.040039	119427.078125
1428.997070	120218.312500
1427.955078	120017.351563
1426.912109	120547.289063
1425.870117	120750.437500
1424.827148	121627.632813
1423.783203	121917.351563
1422.740234	122967.679688
1421.696289	122825.054688
1420.652344	123184.734375
1419.608398	123692.093750
1418.564453	124309.500000
1417.519531	124828.132813
1416.474609	124455.414063
1415.429688	125304.375000
1414.384766	126267.843750
1413.338867	126143.460938
1412.293945	127661.671875
1411.248047	127241.867188
1410.202148	127679.460938
1409.155273	128240.984375
1408.109375	128963.812500
1407.062500	129398.421875
1406.015625	129860.929688
1404.968750	129523.031250
1403.920898	130097.593750
1402.874023	130056.804688
1401.826172	131175.843750
1400.777344	131733.312500
1399.729492	131720.250000
1398.681641	132179.218750
1397.632813	132145.015625
1396.583984	132517.265625
1395.535156	133113.562500
1394.485352	132705.562500
1393.435547	132566.203125
1392.386719	133022.046875
1391.335938	133806.734375
1390.286133	133956.500000
1389.236328	133800.640625
1388.185547	133985.296875
1387.134766	134202.531250
1386.083984	134480.281250
1385.032227	134608.734375
1383.980469	133970.500000
